#  E (eV)   dos(E)     Int dos(E) EFermi =    6.235 eV
  -8.000  0.0000E+00  0.0000E+00
  -7.950  0.0000E+00  0.0000E+00
  -7.900  0.0000E+00  0.0000E+00
  -7.850  0.0000E+00  0.0000E+00
  -7.800  0.0000E+00  0.0000E+00
  -7.750  0.0000E+00  0.0000E+00
  -7.700  0.0000E+00  0.0000E+00
  -7.650  0.0000E+00  0.0000E+00
  -7.600  0.0000E+00  0.0000E+00
  -7.550  0.0000E+00  0.0000E+00
  -7.500  0.0000E+00  0.0000E+00
  -7.450  0.0000E+00  0.0000E+00
  -7.400  0.0000E+00  0.0000E+00
  -7.350  0.0000E+00  0.0000E+00
  -7.300  0.0000E+00  0.0000E+00
  -7.250  0.0000E+00  0.0000E+00
  -7.200  0.0000E+00  0.0000E+00
  -7.150  0.0000E+00  0.0000E+00
  -7.100  0.0000E+00  0.0000E+00
  -7.050  0.0000E+00  0.0000E+00
  -7.000  0.0000E+00  0.0000E+00
  -6.950  0.0000E+00  0.0000E+00
  -6.900  0.0000E+00  0.0000E+00
  -6.850  0.0000E+00  0.0000E+00
  -6.800  0.0000E+00  0.0000E+00
  -6.750  0.0000E+00  0.0000E+00
  -6.700  0.0000E+00  0.0000E+00
  -6.650  0.0000E+00  0.0000E+00
  -6.600  0.0000E+00  0.0000E+00
  -6.550  0.0000E+00  0.0000E+00
  -6.500  0.0000E+00  0.0000E+00
  -6.450  0.0000E+00  0.0000E+00
  -6.400  0.0000E+00  0.0000E+00
  -6.350  0.0000E+00  0.0000E+00
  -6.300  0.0000E+00  0.0000E+00
  -6.250  0.0000E+00  0.0000E+00
  -6.200  0.0000E+00  0.0000E+00
  -6.150  0.0000E+00  0.0000E+00
  -6.100  0.0000E+00  0.0000E+00
  -6.050  0.0000E+00  0.0000E+00
  -6.000  0.0000E+00  0.0000E+00
  -5.950  0.0000E+00  0.0000E+00
  -5.900  0.0000E+00  0.0000E+00
  -5.850  0.0000E+00  0.0000E+00
  -5.800  0.0000E+00  0.0000E+00
  -5.750  0.0000E+00  0.0000E+00
  -5.700  0.0000E+00  0.0000E+00
  -5.650  0.3635E-02  0.2581E-04
  -5.600  0.4071E-01  0.9677E-03
  -5.550  0.1178E+00  0.4764E-02
  -5.500  0.1184E+00  0.1095E-01
  -5.450  0.1389E+00  0.1737E-01
  -5.400  0.1610E+00  0.2486E-01
  -5.350  0.1845E+00  0.3349E-01
  -5.300  0.2082E+00  0.4332E-01
  -5.250  0.2240E+00  0.5416E-01
  -5.200  0.2303E+00  0.6556E-01
  -5.150  0.2393E+00  0.7725E-01
  -5.100  0.2532E+00  0.8956E-01
  -5.050  0.2674E+00  0.1026E+00
  -5.000  0.2819E+00  0.1163E+00
  -4.950  0.2966E+00  0.1308E+00
  -4.900  0.3118E+00  0.1460E+00
  -4.850  0.3252E+00  0.1619E+00
  -4.800  0.3325E+00  0.1784E+00
  -4.750  0.3426E+00  0.1952E+00
  -4.700  0.3526E+00  0.2126E+00
  -4.650  0.3624E+00  0.2305E+00
  -4.600  0.3726E+00  0.2489E+00
  -4.550  0.3836E+00  0.2678E+00
  -4.500  0.3954E+00  0.2872E+00
  -4.450  0.4078E+00  0.3073E+00
  -4.400  0.4205E+00  0.3280E+00
  -4.350  0.4333E+00  0.3494E+00
  -4.300  0.4461E+00  0.3714E+00
  -4.250  0.4571E+00  0.3939E+00
  -4.200  0.4660E+00  0.4170E+00
  -4.150  0.4771E+00  0.4406E+00
  -4.100  0.4892E+00  0.4647E+00
  -4.050  0.5017E+00  0.4895E+00
  -4.000  0.5147E+00  0.5149E+00
  -3.950  0.5281E+00  0.5410E+00
  -3.900  0.5421E+00  0.5677E+00
  -3.850  0.5575E+00  0.5952E+00
  -3.800  0.5743E+00  0.6235E+00
  -3.750  0.5922E+00  0.6527E+00
  -3.700  0.6112E+00  0.6828E+00
  -3.650  0.6314E+00  0.7138E+00
  -3.600  0.6526E+00  0.7459E+00
  -3.550  0.6760E+00  0.7791E+00
  -3.500  0.7032E+00  0.8136E+00
  -3.450  0.7333E+00  0.8495E+00
  -3.400  0.8098E+00  0.8878E+00
  -3.350  0.9453E+00  0.9314E+00
  -3.300  0.9896E+00  0.9816E+00
  -3.250  0.8585E+00  0.1026E+01
  -3.200  0.8535E+00  0.1069E+01
  -3.150  0.8498E+00  0.1111E+01
  -3.100  0.8474E+00  0.1154E+01
  -3.050  0.8323E+00  0.1196E+01
  -3.000  0.7911E+00  0.1237E+01
  -2.950  0.7559E+00  0.1275E+01
  -2.900  0.7659E+00  0.1313E+01
  -2.850  0.7718E+00  0.1352E+01
  -2.800  0.7646E+00  0.1390E+01
  -2.750  0.7461E+00  0.1428E+01
  -2.700  0.7229E+00  0.1465E+01
  -2.650  0.6945E+00  0.1500E+01
  -2.600  0.6609E+00  0.1534E+01
  -2.550  0.6445E+00  0.1567E+01
  -2.500  0.6289E+00  0.1598E+01
  -2.450  0.6143E+00  0.1629E+01
  -2.400  0.6011E+00  0.1660E+01
  -2.350  0.5893E+00  0.1690E+01
  -2.300  0.5768E+00  0.1719E+01
  -2.250  0.5613E+00  0.1747E+01
  -2.200  0.5492E+00  0.1775E+01
  -2.150  0.5360E+00  0.1802E+01
  -2.100  0.6160E+00  0.1829E+01
  -2.050  0.5417E+00  0.1857E+01
  -2.000  0.4751E+00  0.1883E+01
  -1.950  0.4194E+00  0.1905E+01
  -1.900  0.3659E+00  0.1925E+01
  -1.850  0.3148E+00  0.1942E+01
  -1.800  0.2660E+00  0.1956E+01
  -1.750  0.2194E+00  0.1968E+01
  -1.700  0.1757E+00  0.1978E+01
  -1.650  0.1352E+00  0.1986E+01
  -1.600  0.9784E-01  0.1992E+01
  -1.550  0.6373E-01  0.1996E+01
  -1.500  0.3528E-01  0.1998E+01
  -1.450  0.2376E-01  0.2000E+01
  -1.400  0.2649E-01  0.2001E+01
  -1.350  0.4828E-01  0.2003E+01
  -1.300  0.7948E-01  0.2006E+01
  -1.250  0.1135E+00  0.2011E+01
  -1.200  0.1504E+00  0.2017E+01
  -1.150  0.1901E+00  0.2026E+01
  -1.100  0.2322E+00  0.2036E+01
  -1.050  0.2763E+00  0.2049E+01
  -1.000  0.3222E+00  0.2064E+01
  -0.950  0.3702E+00  0.2081E+01
  -0.900  0.4200E+00  0.2101E+01
  -0.850  0.4719E+00  0.2123E+01
  -0.800  0.5256E+00  0.2148E+01
  -0.750  0.6324E+00  0.2177E+01
  -0.700  0.6445E+00  0.2208E+01
  -0.650  0.7060E+00  0.2241E+01
  -0.600  0.7725E+00  0.2278E+01
  -0.550  0.1099E+01  0.2321E+01
  -0.500  0.1433E+01  0.2383E+01
  -0.450  0.1850E+01  0.2466E+01
  -0.400  0.1609E+01  0.2554E+01
  -0.350  0.1331E+01  0.2627E+01
  -0.300  0.1128E+01  0.2688E+01
  -0.250  0.9801E+00  0.2741E+01
  -0.200  0.8730E+00  0.2787E+01
  -0.150  0.8063E+00  0.2829E+01
  -0.100  0.7572E+00  0.2868E+01
  -0.050  0.7184E+00  0.2905E+01
   0.000  0.6884E+00  0.2940E+01
   0.050  0.6616E+00  0.2974E+01
   0.100  0.6373E+00  0.3006E+01
   0.150  0.6152E+00  0.3037E+01
   0.200  0.5938E+00  0.3068E+01
   0.250  0.5730E+00  0.3097E+01
   0.300  0.5526E+00  0.3125E+01
   0.350  0.5328E+00  0.3152E+01
   0.400  0.5134E+00  0.3178E+01
   0.450  0.4944E+00  0.3203E+01
   0.500  0.4765E+00  0.3228E+01
   0.550  0.4598E+00  0.3251E+01
   0.600  0.4369E+00  0.3274E+01
   0.650  0.4162E+00  0.3295E+01
   0.700  0.4006E+00  0.3315E+01
   0.750  0.3899E+00  0.3335E+01
   0.800  0.3822E+00  0.3354E+01
   0.850  0.3747E+00  0.3373E+01
   0.900  0.3673E+00  0.3392E+01
   0.950  0.3597E+00  0.3410E+01
   1.000  0.3521E+00  0.3428E+01
   1.050  0.3446E+00  0.3445E+01
   1.100  0.3369E+00  0.3462E+01
   1.150  0.3293E+00  0.3479E+01
   1.200  0.3217E+00  0.3495E+01
   1.250  0.3141E+00  0.3511E+01
   1.300  0.3065E+00  0.3527E+01
   1.350  0.2988E+00  0.3542E+01
   1.400  0.2912E+00  0.3556E+01
   1.450  0.2835E+00  0.3571E+01
   1.500  0.2642E+00  0.3585E+01
   1.550  0.2499E+00  0.3598E+01
   1.600  0.2414E+00  0.3610E+01
   1.650  0.2341E+00  0.3622E+01
   1.700  0.2278E+00  0.3633E+01
   1.750  0.2227E+00  0.3644E+01
   1.800  0.2187E+00  0.3655E+01
   1.850  0.2152E+00  0.3666E+01
   1.900  0.2118E+00  0.3677E+01
   1.950  0.3646E+00  0.3690E+01
   2.000  0.6904E+00  0.3719E+01
   2.050  0.7514E+00  0.3753E+01
   2.100  0.9276E+00  0.3795E+01
   2.150  0.1087E+01  0.3845E+01
   2.200  0.1239E+01  0.3903E+01
   2.250  0.1382E+01  0.3969E+01
   2.300  0.1465E+01  0.4041E+01
   2.350  0.1332E+01  0.4112E+01
   2.400  0.1123E+01  0.4174E+01
   2.450  0.1031E+01  0.4227E+01
   2.500  0.1013E+01  0.4278E+01
   2.550  0.1007E+01  0.4328E+01
   2.600  0.1003E+01  0.4378E+01
   2.650  0.1001E+01  0.4429E+01
   2.700  0.1002E+01  0.4479E+01
   2.750  0.1009E+01  0.4529E+01
   2.800  0.1021E+01  0.4580E+01
   2.850  0.1030E+01  0.4631E+01
   2.900  0.1043E+01  0.4683E+01
   2.950  0.1059E+01  0.4735E+01
   3.000  0.1214E+01  0.4798E+01
   3.050  0.1138E+01  0.4856E+01
   3.100  0.1166E+01  0.4913E+01
   3.150  0.1206E+01  0.4972E+01
   3.200  0.1257E+01  0.5034E+01
   3.250  0.1320E+01  0.5098E+01
   3.300  0.1432E+01  0.5172E+01
   3.350  0.1418E+01  0.5242E+01
   3.400  0.1477E+01  0.5315E+01
   3.450  0.1576E+01  0.5391E+01
   3.500  0.1719E+01  0.5474E+01
   3.550  0.1505E+01  0.5552E+01
   3.600  0.1497E+01  0.5627E+01
   3.650  0.1482E+01  0.5702E+01
   3.700  0.1466E+01  0.5776E+01
   3.750  0.1449E+01  0.5849E+01
   3.800  0.1436E+01  0.5921E+01
   3.850  0.1444E+01  0.5993E+01
   3.900  0.1436E+01  0.6065E+01
   3.950  0.1425E+01  0.6136E+01
   4.000  0.1410E+01  0.6207E+01
   4.050  0.1394E+01  0.6277E+01
   4.100  0.1377E+01  0.6347E+01
   4.150  0.1360E+01  0.6415E+01
   4.200  0.1346E+01  0.6483E+01
   4.250  0.1344E+01  0.6550E+01
   4.300  0.1329E+01  0.6617E+01
   4.350  0.1322E+01  0.6683E+01
   4.400  0.1323E+01  0.6749E+01
   4.450  0.1331E+01  0.6815E+01
   4.500  0.1331E+01  0.6882E+01
   4.550  0.1320E+01  0.6948E+01
   4.600  0.1301E+01  0.7014E+01
   4.650  0.1280E+01  0.7078E+01
   4.700  0.1258E+01  0.7142E+01
   4.750  0.1233E+01  0.7204E+01
   4.800  0.1215E+01  0.7265E+01
   4.850  0.1219E+01  0.7326E+01
   4.900  0.1200E+01  0.7387E+01
   4.950  0.1157E+01  0.7446E+01
   5.000  0.1087E+01  0.7502E+01
   5.050  0.9388E+00  0.7553E+01
   5.100  0.8213E+00  0.7596E+01
   5.150  0.7737E+00  0.7636E+01
   5.200  0.7336E+00  0.7674E+01
   5.250  0.6842E+00  0.7710E+01
   5.300  0.6179E+00  0.7742E+01
   5.350  0.5642E+00  0.7771E+01
   5.400  0.5231E+00  0.7799E+01
   5.450  0.4822E+00  0.7824E+01
   5.500  0.4434E+00  0.7847E+01
   5.550  0.4067E+00  0.7868E+01
   5.600  0.3721E+00  0.7888E+01
   5.650  0.3395E+00  0.7905E+01
   5.700  0.3075E+00  0.7922E+01
   5.750  0.2736E+00  0.7936E+01
   5.800  0.2422E+00  0.7949E+01
   5.850  0.2153E+00  0.7960E+01
   5.900  0.1927E+00  0.7971E+01
   5.950  0.1745E+00  0.7980E+01
   6.000  0.1606E+00  0.7988E+01
   6.050  0.8486E-01  0.7995E+01
   6.100  0.3921E-01  0.7998E+01
   6.150  0.1550E-01  0.8000E+01
   6.200  0.2596E-02  0.8000E+01
   6.250  0.0000E+00  0.8000E+01
   6.300  0.0000E+00  0.8000E+01
   6.350  0.0000E+00  0.8000E+01
   6.400  0.0000E+00  0.8000E+01
   6.450  0.0000E+00  0.8000E+01
   6.500  0.0000E+00  0.8000E+01
   6.550  0.0000E+00  0.8000E+01
   6.600  0.0000E+00  0.8000E+01
   6.650  0.0000E+00  0.8000E+01
   6.700  0.0000E+00  0.8000E+01
   6.750  0.0000E+00  0.8000E+01
   6.800  0.0000E+00  0.8000E+01
   6.850  0.3818E-03  0.8000E+01
   6.900  0.1689E-01  0.8000E+01
   6.950  0.5780E-01  0.8002E+01
   7.000  0.1127E+00  0.8006E+01
   7.050  0.1390E+00  0.8013E+01
   7.100  0.1563E+00  0.8020E+01
   7.150  0.1923E+00  0.8029E+01
   7.200  0.2271E+00  0.8039E+01
   7.250  0.2599E+00  0.8051E+01
   7.300  0.2909E+00  0.8065E+01
   7.350  0.3249E+00  0.8081E+01
   7.400  0.3588E+00  0.8098E+01
   7.450  0.3915E+00  0.8116E+01
   7.500  0.4231E+00  0.8137E+01
   7.550  0.4558E+00  0.8159E+01
   7.600  0.4908E+00  0.8182E+01
   7.650  0.5288E+00  0.8208E+01
   7.700  0.5698E+00  0.8235E+01
   7.750  0.6133E+00  0.8265E+01
   7.800  0.6592E+00  0.8297E+01
   7.850  0.7086E+00  0.8331E+01
   7.900  0.7443E+00  0.8367E+01
   7.950  0.7820E+00  0.8405E+01
   8.000  0.8179E+00  0.8445E+01
   8.050  0.8530E+00  0.8487E+01
   8.100  0.8934E+00  0.8531E+01
   8.150  0.9534E+00  0.8577E+01
   8.200  0.1021E+01  0.8626E+01
   8.250  0.1097E+01  0.8679E+01
   8.300  0.1180E+01  0.8736E+01
   8.350  0.1274E+01  0.8797E+01
   8.400  0.1388E+01  0.8864E+01
   8.450  0.1517E+01  0.8937E+01
   8.500  0.1628E+01  0.9015E+01
   8.550  0.1796E+01  0.9101E+01
   8.600  0.1929E+01  0.9194E+01
   8.650  0.2030E+01  0.9294E+01
   8.700  0.2071E+01  0.9396E+01
   8.750  0.2098E+01  0.9501E+01
   8.800  0.2084E+01  0.9605E+01
   8.850  0.1950E+01  0.9707E+01
   8.900  0.1813E+01  0.9801E+01
   8.950  0.1638E+01  0.9887E+01
   9.000  0.1359E+01  0.9963E+01
   9.050  0.1000E+01  0.1002E+02
   9.100  0.8426E+00  0.1007E+02
   9.150  0.7605E+00  0.1011E+02
   9.200  0.7208E+00  0.1014E+02
   9.250  0.6901E+00  0.1018E+02
   9.300  0.6679E+00  0.1021E+02
   9.350  0.6581E+00  0.1025E+02
   9.400  0.6896E+00  0.1028E+02
   9.450  0.7806E+00  0.1032E+02
   9.500  0.9258E+00  0.1036E+02
   9.550  0.1153E+01  0.1041E+02
   9.600  0.2024E+01  0.1049E+02
   9.650  0.2686E+01  0.1061E+02
   9.700  0.2507E+01  0.1074E+02
   9.750  0.2642E+01  0.1087E+02
   9.800  0.2487E+01  0.1100E+02
   9.850  0.2290E+01  0.1111E+02
   9.900  0.2171E+01  0.1123E+02
   9.950  0.2033E+01  0.1133E+02
  10.000  0.2044E+01  0.1143E+02
  10.050  0.1693E+01  0.1152E+02
  10.100  0.1548E+01  0.1160E+02
  10.150  0.1453E+01  0.1168E+02
  10.200  0.1384E+01  0.1175E+02
  10.250  0.1330E+01  0.1182E+02
  10.300  0.1293E+01  0.1188E+02
  10.350  0.1257E+01  0.1195E+02
  10.400  0.1220E+01  0.1201E+02
  10.450  0.1176E+01  0.1207E+02
  10.500  0.1123E+01  0.1213E+02
  10.550  0.1061E+01  0.1218E+02
  10.600  0.9905E+00  0.1223E+02
  10.650  0.9586E+00  0.1228E+02
  10.700  0.9610E+00  0.1233E+02
  10.750  0.9762E+00  0.1238E+02
  10.800  0.1009E+01  0.1243E+02
  10.850  0.1060E+01  0.1248E+02
  10.900  0.1085E+01  0.1253E+02
  10.950  0.1100E+01  0.1259E+02
  11.000  0.1210E+01  0.1264E+02
  11.050  0.1355E+01  0.1271E+02
  11.100  0.1437E+01  0.1278E+02
  11.150  0.1499E+01  0.1285E+02
  11.200  0.1508E+01  0.1293E+02
  11.250  0.1428E+01  0.1300E+02
  11.300  0.1325E+01  0.1307E+02
  11.350  0.1242E+01  0.1313E+02
  11.400  0.1173E+01  0.1319E+02
  11.450  0.1119E+01  0.1325E+02
  11.500  0.1116E+01  0.1331E+02
  11.550  0.1125E+01  0.1336E+02
  11.600  0.1135E+01  0.1342E+02
  11.650  0.1099E+01  0.1347E+02
  11.700  0.1045E+01  0.1353E+02
  11.750  0.1086E+01  0.1358E+02
  11.800  0.1095E+01  0.1364E+02
  11.850  0.1072E+01  0.1369E+02
  11.900  0.1052E+01  0.1374E+02
  11.950  0.1034E+01  0.1380E+02
  12.000  0.1015E+01  0.1385E+02
  12.050  0.9942E+00  0.1390E+02
  12.100  0.9682E+00  0.1395E+02
  12.150  0.1140E+01  0.1400E+02
  12.200  0.9719E+00  0.1405E+02
  12.250  0.1059E+01  0.1411E+02
  12.300  0.9807E+00  0.1416E+02
  12.350  0.9531E+00  0.1421E+02
  12.400  0.9339E+00  0.1425E+02
  12.450  0.9244E+00  0.1430E+02
  12.500  0.9247E+00  0.1435E+02
  12.550  0.9346E+00  0.1439E+02
  12.600  0.9572E+00  0.1444E+02
  12.650  0.1002E+01  0.1449E+02
  12.700  0.1072E+01  0.1454E+02
  12.750  0.1158E+01  0.1460E+02
  12.800  0.1260E+01  0.1466E+02
  12.850  0.1375E+01  0.1472E+02
  12.900  0.1505E+01  0.1479E+02
  12.950  0.1622E+01  0.1487E+02
  13.000  0.1673E+01  0.1496E+02
  13.050  0.1562E+01  0.1504E+02
  13.100  0.1472E+01  0.1511E+02
  13.150  0.1405E+01  0.1519E+02
  13.200  0.1346E+01  0.1525E+02
  13.250  0.1287E+01  0.1532E+02
  13.300  0.1227E+01  0.1538E+02
  13.350  0.1172E+01  0.1544E+02
  13.400  0.1126E+01  0.1550E+02
  13.450  0.1088E+01  0.1556E+02
  13.500  0.1060E+01  0.1561E+02
  13.550  0.1039E+01  0.1566E+02
  13.600  0.1024E+01  0.1571E+02
  13.650  0.1028E+01  0.1576E+02
  13.700  0.1032E+01  0.1582E+02
  13.750  0.1030E+01  0.1587E+02
  13.800  0.1024E+01  0.1592E+02
  13.850  0.1015E+01  0.1597E+02
  13.900  0.1008E+01  0.1602E+02
  13.950  0.1027E+01  0.1607E+02
  14.000  0.1087E+01  0.1612E+02
  14.050  0.1449E+01  0.1618E+02
  14.100  0.1541E+01  0.1626E+02
  14.150  0.1433E+01  0.1634E+02
  14.200  0.1181E+01  0.1640E+02
  14.250  0.1113E+01  0.1646E+02
  14.300  0.1096E+01  0.1651E+02
  14.350  0.1118E+01  0.1657E+02
  14.400  0.1144E+01  0.1663E+02
  14.450  0.1176E+01  0.1668E+02
  14.500  0.1208E+01  0.1674E+02
  14.550  0.1238E+01  0.1680E+02
  14.600  0.1267E+01  0.1687E+02
  14.650  0.1293E+01  0.1693E+02
  14.700  0.1327E+01  0.1700E+02
  14.750  0.1388E+01  0.1706E+02
  14.800  0.1418E+01  0.1713E+02
  14.850  0.1406E+01  0.1721E+02
  14.900  0.1388E+01  0.1727E+02
  14.950  0.1365E+01  0.1734E+02
  15.000  0.1336E+01  0.1741E+02
  15.050  0.1303E+01  0.1748E+02
  15.100  0.1262E+01  0.1754E+02
  15.150  0.1256E+01  0.1760E+02
  15.200  0.1193E+01  0.1767E+02
  15.250  0.1097E+01  0.1772E+02
  15.300  0.1086E+01  0.1778E+02
  15.350  0.1087E+01  0.1783E+02
  15.400  0.1101E+01  0.1789E+02
  15.450  0.1129E+01  0.1794E+02
  15.500  0.1170E+01  0.1800E+02
  15.550  0.1219E+01  0.1806E+02
  15.600  0.1302E+01  0.1812E+02
  15.650  0.1423E+01  0.1819E+02
  15.700  0.1485E+01  0.1826E+02
  15.750  0.1482E+01  0.1834E+02
  15.800  0.1418E+01  0.1841E+02
  15.850  0.1406E+01  0.1848E+02
  15.900  0.1397E+01  0.1855E+02
  15.950  0.1395E+01  0.1862E+02
  16.000  0.1402E+01  0.1869E+02
  16.050  0.1417E+01  0.1876E+02
  16.100  0.1437E+01  0.1883E+02
  16.150  0.1459E+01  0.1890E+02
  16.200  0.1486E+01  0.1898E+02
  16.250  0.1516E+01  0.1905E+02
  16.300  0.1531E+01  0.1913E+02
  16.350  0.1534E+01  0.1921E+02
  16.400  0.1547E+01  0.1928E+02
  16.450  0.1565E+01  0.1936E+02
  16.500  0.1584E+01  0.1944E+02
  16.550  0.1599E+01  0.1952E+02
  16.600  0.1605E+01  0.1960E+02
  16.650  0.1603E+01  0.1968E+02
  16.700  0.1594E+01  0.1976E+02
  16.750  0.1565E+01  0.1984E+02
  16.800  0.1453E+01  0.1991E+02
  16.850  0.1408E+01  0.1999E+02
  16.900  0.1424E+01  0.2006E+02
  16.950  0.1507E+01  0.2013E+02
  17.000  0.1536E+01  0.2020E+02
  17.050  0.1594E+01  0.2029E+02
  17.100  0.1509E+01  0.2037E+02
  17.150  0.1162E+01  0.2044E+02
  17.200  0.9209E+00  0.2049E+02
  17.250  0.7928E+00  0.2053E+02
  17.300  0.7174E+00  0.2057E+02
  17.350  0.6535E+00  0.2060E+02
  17.400  0.6173E+00  0.2063E+02
  17.450  0.6454E+00  0.2067E+02
  17.500  0.6462E+00  0.2070E+02
  17.550  0.6872E+00  0.2073E+02
  17.600  0.7642E+00  0.2077E+02
  17.650  0.8431E+00  0.2081E+02
  17.700  0.8823E+00  0.2085E+02
  17.750  0.8557E+00  0.2090E+02
  17.800  0.8181E+00  0.2094E+02
  17.850  0.7852E+00  0.2098E+02
  17.900  0.8282E+00  0.2102E+02
  17.950  0.8424E+00  0.2106E+02
  18.000  0.8501E+00  0.2110E+02
  18.050  0.8562E+00  0.2114E+02
  18.100  0.8607E+00  0.2119E+02
  18.150  0.8636E+00  0.2123E+02
  18.200  0.8644E+00  0.2127E+02
  18.250  0.8722E+00  0.2132E+02
  18.300  0.9410E+00  0.2136E+02
  18.350  0.1004E+01  0.2141E+02
  18.400  0.1059E+01  0.2146E+02
  18.450  0.1127E+01  0.2152E+02
  18.500  0.1239E+01  0.2157E+02
  18.550  0.1407E+01  0.2164E+02
  18.600  0.1683E+01  0.2172E+02
  18.650  0.1809E+01  0.2181E+02
  18.700  0.1878E+01  0.2190E+02
  18.750  0.1868E+01  0.2199E+02
  18.800  0.1804E+01  0.2208E+02
  18.850  0.1809E+01  0.2217E+02
  18.900  0.1960E+01  0.2227E+02
  18.950  0.2172E+01  0.2237E+02
  19.000  0.2300E+01  0.2248E+02
  19.050  0.2277E+01  0.2260E+02
  19.100  0.2553E+01  0.2272E+02
  19.150  0.2292E+01  0.2284E+02
  19.200  0.1845E+01  0.2295E+02
  19.250  0.1340E+01  0.2303E+02
  19.300  0.1021E+01  0.2308E+02
  19.350  0.8768E+00  0.2313E+02
  19.400  0.7891E+00  0.2317E+02
  19.450  0.7339E+00  0.2321E+02
  19.500  0.6984E+00  0.2325E+02
  19.550  0.6709E+00  0.2328E+02
  19.600  0.6492E+00  0.2331E+02
  19.650  0.6304E+00  0.2335E+02
  19.700  0.6143E+00  0.2338E+02
  19.750  0.6011E+00  0.2341E+02
  19.800  0.5894E+00  0.2344E+02
  19.850  0.5789E+00  0.2347E+02
  19.900  0.5695E+00  0.2349E+02
  19.950  0.5824E+00  0.2352E+02
  20.000  0.6281E+00  0.2355E+02
